File: raman/M9/data/Laserpeak_Graphite.txt
520.00  1.9488E+002
520.10  1.9188E+002
520.20  1.6388E+002
520.30  1.4748E+002
520.40  1.6348E+002
520.50  1.9568E+002
520.60  2.0788E+002
520.71  1.9528E+002
520.81  1.8228E+002
520.91  1.8988E+002
521.01  2.0568E+002
521.11  2.1428E+002
521.21  2.1988E+002
521.31  2.3348E+002
521.41  2.2408E+002
521.51  2.1788E+002
521.62  2.2748E+002
521.72  2.3208E+002
521.82  2.2708E+002
521.92  2.1448E+002
522.02  2.4528E+002
522.12  2.6068E+002
522.22  2.7748E+002
522.32  2.8048E+002
522.42  2.6708E+002
522.53  2.2688E+002
522.63  1.9988E+002
522.73  1.9608E+002
522.83  2.2188E+002
522.93  2.4068E+002
523.03  2.4648E+002
523.13  2.2808E+002
523.23  2.2168E+002
523.33  2.4088E+002
523.43  2.5488E+002
523.54  2.7328E+002
523.64  2.6428E+002
523.74  2.3868E+002
523.84  2.2188E+002
523.94  2.2068E+002
524.04  2.3988E+002
524.14  2.6168E+002
524.24  2.5628E+002
524.34  2.4488E+002
524.45  2.6028E+002
524.55  2.6648E+002
524.65  2.6608E+002
524.75  2.4188E+002
524.85  2.2608E+002
524.95  2.3708E+002
525.05  2.6968E+002
525.15  3.0368E+002
525.25  3.0168E+002
525.36  2.5948E+002
525.46  2.2968E+002
525.56  2.5388E+002
525.66  3.0028E+002
525.76  3.2128E+002
525.86  3.0848E+002
525.96  3.1028E+002
526.06  3.3628E+002
526.16  3.5388E+002
526.26  3.6208E+002
526.37  3.6848E+002
526.47  3.5148E+002
526.57  3.2028E+002
526.67  3.1808E+002
526.77  3.3668E+002
526.87  3.7588E+002
526.97  4.3688E+002
527.07  4.5968E+002
527.17  4.2248E+002
527.28  3.8228E+002
527.38  3.8548E+002
527.48  4.3888E+002
527.58  4.9328E+002
527.68  4.7828E+002
527.78  4.5548E+002
527.88  4.7368E+002
527.98  5.5808E+002
528.08  6.2528E+002
528.18  6.8848E+002
528.29  7.0448E+002
528.39  7.0708E+002
528.49  7.2568E+002
528.59  7.4728E+002
528.69  7.6348E+002
528.79  7.8908E+002
528.89  8.2528E+002
528.99  8.7788E+002
529.09  9.3028E+002
529.19  9.8888E+002
529.30  1.0799E+003
529.40  1.1919E+003
529.50  1.2869E+003
529.60  1.3731E+003
529.70  1.4573E+003
529.80  1.6309E+003
529.90  1.8757E+003
530.00  2.2459E+003
530.10  2.5917E+003
530.21  2.8723E+003
530.31  2.9869E+003
530.41  3.0903E+003
530.51  3.5129E+003
530.61  4.4413E+003
530.71  5.4357E+003
530.81  5.9997E+003
530.91  6.3087E+003
531.01  6.9959E+003
533.08  6.4859E+003
533.18  5.5147E+003
533.29  4.7403E+003
533.39  3.9435E+003
533.49  3.3223E+003
533.59  2.9407E+003
533.69  2.5925E+003
533.79  2.2759E+003
533.89  2.0499E+003
533.99  1.9209E+003
534.09  1.8035E+003
534.19  1.6347E+003
534.30  1.4553E+003
534.40  1.3059E+003
534.50  1.1897E+003
534.60  1.0879E+003
534.70  1.0137E+003
534.80  9.3768E+002
534.90  9.1008E+002
535.00  8.7348E+002
535.10  8.2888E+002
535.20  7.8448E+002
535.31  7.3448E+002
535.41  6.9148E+002
535.51  7.0068E+002
535.61  7.2268E+002
535.71  6.4168E+002
535.81  5.7328E+002
535.91  5.5288E+002
536.01  5.6868E+002
536.11  5.3948E+002
536.21  5.0448E+002
536.31  4.6248E+002
536.42  4.5388E+002
536.52  4.4548E+002
536.62  4.4048E+002
536.72  4.3388E+002
536.82  3.9808E+002
536.92  3.7648E+002
537.02  3.8168E+002
537.12  3.7748E+002
537.22  3.6928E+002
537.32  3.5108E+002
537.43  3.4388E+002
537.53  3.4228E+002
537.63  3.4948E+002
537.73  3.6728E+002
537.83  3.9008E+002
537.93  3.6968E+002
538.03  3.3748E+002
538.13  3.3008E+002
538.23  3.2268E+002
538.33  3.2728E+002
538.43  3.3888E+002
538.54  3.3648E+002
538.64  3.2728E+002
538.74  3.2668E+002
538.84  3.4788E+002
538.94  3.6768E+002
539.04  3.7208E+002
539.14  3.2348E+002
539.24  2.8768E+002
539.34  2.7268E+002
539.44  3.0328E+002
539.54  3.3088E+002
539.65  3.3128E+002
539.75  2.8868E+002
539.85  2.7168E+002
539.95  2.6768E+002
540.05  2.8768E+002
540.15  2.7508E+002
540.25  2.6768E+002
540.35  2.6168E+002
540.45  2.6948E+002
540.55  2.7448E+002
540.65  2.8548E+002
540.76  2.8328E+002
540.86  2.5928E+002
540.96  2.5748E+002
541.06  2.5708E+002
541.16  2.7228E+002
541.26  2.9308E+002
541.36  3.0548E+002
541.46  2.8388E+002
541.56  2.6328E+002
541.66  2.5128E+002
541.76  2.6708E+002
541.87  2.7508E+002
541.97  2.5348E+002
542.02  2.4548E+002