File: raman/M9/data/Stokespeak_Graphite.txt
579.53  1.3748E+002
579.58  1.3348E+002
579.63  1.3368E+002
579.68  1.2988E+002
579.73  1.2888E+002
579.78  1.4228E+002
579.83  1.5388E+002
579.88  4.2528E+002
579.93  8.0308E+002
579.98  9.4348E+002
580.03  9.9188E+002
580.08  1.0075E+003
580.13  7.4348E+002
580.18  3.7088E+002
580.23  2.4708E+002
580.28  2.0808E+002
580.33  1.9048E+002
580.38  1.9868E+002
580.43  2.1128E+002
580.48  2.0888E+002
580.52  2.0668E+002